File: charts/20230727/TRANSFORM/TGA/Cs-ZCFA.txt
6.66667E-4;22.89108;6.474337;40.01065;60.00839;0.07446069
0.5208332;24.98160;6.458226;39.99373;60.04054;0.06905997
1.045834;29.92141;6.438832;39.97730;60.01728;0.06379500
1.570833;35.10146;6.416796;39.99565;59.99232;0.06603241
2.095833;40.14844;6.395196;40.01550;60.00766;0.06278105
2.620834;45.20404;6.375867;40.00294;59.97660;0.05982994
3.145833;50.31462;6.355900;40.00041;60.00150;0.05934016
3.670833;55.47443;6.336208;39.99016;60.00367;0.06064302
4.195833;60.67604;6.315196;40.00278;60.00940;0.06464208
4.720833;65.89380;6.292520;39.99686;60.01359;0.07156534
5.245834;71.12964;6.266337;39.98115;60.01720;0.08380181
5.770834;76.37776;6.235190;40.00350;59.97364;0.1022134
6.295832;81.62710;6.197104;40.00905;59.98790;0.1239263
6.820832;86.88634;6.150816;39.99778;59.99756;0.1459960
7.345834;92.14520;6.097869;40.03542;59.99775;0.1627449
7.870834;97.40571;6.040400;40.00600;60.01928;0.1689566
8.395832;102.6674;5.983493;39.97299;60.02986;0.1603916
8.920834;107.9261;5.932000;40.00023;59.97338;0.1378311
9.445832;113.1818;5.889868;39.99652;59.99038;0.1088834
9.970834;118.4346;5.857636;40.02683;59.99194;0.08324024
10.49584;123.6878;5.832910;40.00290;60.02644;0.06476695
11.02083;128.9422;5.813345;40.00403;60.03385;0.05160850
11.54584;134.2006;5.797718;40.01183;60.02706;0.04195313
12.07083;139.4576;5.784574;40.00294;59.97768;0.03601192
12.59584;144.7148;5.773220;40.00050;59.97550;0.03043384
13.12083;149.9751;5.763584;40.02695;60.00126;0.02623894
13.64583;155.2297;5.755326;39.99414;59.99920;0.02274785
14.17084;160.4903;5.747932;39.97625;59.98101;0.01974957
14.69583;165.7424;5.741711;40.00027;59.99597;0.01867040
15.22084;170.9938;5.735523;40.01902;59.98610;0.01749275
15.74583;176.2434;5.729858;40.00270;59.96680;0.01613425
16.27084;181.4892;5.724346;40.01149;60.01100;0.01587028
16.79584;186.7370;5.719234;39.99174;60.02129;0.01433864
17.32083;191.9831;5.714344;39.96536;60.01630;0.01364638
17.84583;197.2316;5.710093;39.97781;60.00870;0.01261048
18.37083;202.4792;5.705924;39.98883;60.00986;0.01175648
18.89584;207.7248;5.702056;39.99891;60.02420;0.01105267
19.42084;212.9726;5.698350;39.99414;60.00799;0.01080647
19.94583;218.2170;5.694682;39.98295;59.99658;0.01044003
20.47083;223.4620;5.691229;40.00376;60.00572;.009750509
20.99583;228.7098;5.688186;39.99805;60.01943;.009765036
21.52084;233.9538;5.684707;39.97983;59.99090;.009704731
22.04584;239.2046;5.681444;40.01213;59.98425;.009295514
22.57083;244.4586;5.678598;40.00327;60.00896;.008288220
23.09583;249.7033;5.675656;40.00469;59.97586;.008489512
23.62083;254.9506;5.672812;40.00608;60.02337;.008150688
24.14584;260.2000;5.670156;39.99338;59.99974;.007254876
24.67084;265.4454;5.667842;39.99295;59.99057;.007597548
25.19583;270.6928;5.665123;40.02565;59.97450;.007221970
25.72083;275.9434;5.662714;39.97361;60.02516;.007551069
26.24583;281.1878;5.660300;39.96474;59.98736;.006945038
26.77084;286.4368;5.657840;40.02492;60.01190;.006755012
27.29584;291.6820;5.655744;39.97500;60.01066;.006393606
27.82084;296.9272;5.653510;39.99426;60.00459;.006939003
28.34583;302.1740;5.651110;40.01014;60.00450;.006672561
28.87083;307.4215;5.648865;40.00365;59.98455;.006490302
29.39584;312.6650;5.646633;40.03244;59.96587;.006218082
29.92084;317.9112;5.644512;39.99820;60.00994;.006290235
30.44584;323.1548;5.642374;39.98397;60.00408;.006327542
30.97083;328.4068;5.640445;40.00002;59.98820;.005799818
31.49583;333.6544;5.638356;40.00996;59.97924;.006053188
32.02083;338.8970;5.636260;39.97694;60.01390;.005617402
32.54584;344.1472;5.634368;39.97448;60.00812;.005894509
33.07084;349.3916;5.632456;40.00025;60.01184;.005513530
33.59583;354.6410;5.630655;40.00078;59.99514;.005430102
34.12084;359.8898;5.628741;40.00788;59.99126;.005237714
34.64583;365.1496;5.627178;39.98637;60.04946;.005132053
35.17084;370.4071;5.625387;39.99380;59.99490;.005059693
35.69584;375.6609;5.623579;39.99356;60.00144;.004848212
36.22083;380.9165;5.622015;39.98834;60.00318;.004713300
36.74584;386.1709;5.620479;40.00510;59.97516;.004482128
37.27083;391.4218;5.618824;39.98941;59.98290;.004210889
37.79584;396.6764;5.617350;40.00418;60.03438;.004640896
38.32084;401.9258;5.615951;39.99343;59.94356;.004062633
38.84583;407.1785;5.614531;40.01205;59.98861;.004068574
39.37084;412.4304;5.613200;40.03260;59.95951;.004211182
39.89583;417.6808;5.611693;39.99435;60.01194;.003305332
40.42084;422.9370;5.610582;40.00400;60.00758;.004537826
40.94584;428.1881;5.609203;39.96790;59.96873;.003413587
41.47083;433.4403;5.607744;39.99570;60.00796;.002872470
41.99584;438.6941;5.606946;39.99224;59.96989;.003543698
42.52083;443.9504;5.605605;40.00322;60.01910;.003243147
43.04584;449.2045;5.604639;40.02812;60.02410;.003842583
43.57084;454.4562;5.603168;39.97933;60.00838;.003888850
44.09583;459.7107;5.601930;40.02114;60.02636;.003920311
44.62084;464.9632;5.600544;39.98156;59.96842;.003670561
45.14583;470.2175;5.599470;40.00674;59.99771;.003295762
45.67084;475.4713;5.598470;40.02225;59.97399;.003192394
46.19584;480.7289;5.597201;40.00133;60.00872;.003790553
46.72083;485.9794;5.595900;39.99318;60.00220;.003704514
47.24584;491.2330;5.594598;39.98394;59.99031;.003519828
47.77083;496.4867;5.593457;40.04439;60.00669;.003261288
48.29584;501.7394;5.592461;40.00096;59.99536;.003329407
48.82084;506.9912;5.591261;39.98552;60.01086;.003458097
49.34583;512.2437;5.589895;39.99487;60.00668;.003705366
49.87084;517.4996;5.588806;40.00300;59.98075;.003631485
50.39583;522.7498;5.587529;39.98601;59.98998;.003601780
50.92084;528.0066;5.586316;40.00538;60.00644;.003387866
51.44584;533.2620;5.585332;40.04156;60.00080;.003279750
51.97083;538.5174;5.583984;39.99502;59.97780;.003436013
52.49584;543.7724;5.583322;39.98303;59.98040;.003525448
53.02082;549.0254;5.581582;40.00124;59.98609;.003582939
53.54582;554.2756;5.580530;40.01186;60.01684;.003532898
54.07084;559.5299;5.578742;39.97492;59.98934;.004284771
54.59582;564.7869;5.577746;40.04442;60.00128;.003295982
55.12084;570.0395;5.576456;39.99900;59.99902;.003246346
55.64582;575.2934;5.575400;39.99739;59.98089;.003298279
56.17082;580.5504;5.574430;39.98303;60.00947;.002959216
56.69584;585.8008;5.573531;40.00722;59.98522;.002464232
57.22082;591.0546;5.572704;39.99560;60.01449;.001029656
57.74584;596.3106;5.572502;40.00922;60.00082;.001059914
58.27082;601.5630;5.572169;40.01330;60.00843;.001421632
58.79582;606.8140;5.571645;39.99805;59.99790;.001371857
59.32084;612.0708;5.571283;40.01216;59.96090;7.29787E-4
59.84582;617.3277;5.571598;40.01088;60.02528;.001068232
60.37084;622.5803;5.570575;39.99472;59.97300;9.46310E-4
60.89582;627.8304;5.570793;40.00802;59.98528;.001056964
61.42082;633.0850;5.569887;40.00374;60.03050;.001246858
61.94584;638.3402;5.569770;40.00290;60.00104;9.32824E-4
62.47082;643.5945;5.569316;40.02790;60.00840;.001302616
62.99584;648.8518;5.569072;39.97792;60.01518;.001591295
63.52082;654.1016;5.568470;40.01861;60.01328;.001407884
64.04582;659.3550;5.567807;39.98506;59.97229;.001483727
64.57082;664.6089;5.567341;39.99056;60.00695;.001616624
65.09582;669.8651;5.566898;40.00338;60.00244;.001101304
65.62084;675.1178;5.566793;40.00113;59.96674;3.07547E-4
66.14584;680.3714;5.566307;40.00438;59.99144;.002218250
66.67082;685.6257;5.565818;40.01550;60.02026;.002030400
67.19582;690.8760;5.566024;39.99746;59.98295;3.52064E-4
67.72082;696.1231;5.565012;39.96331;60.00118;.003055704
68.24584;701.3835;5.564138;39.99878;59.99624;.003462994
68.77084;706.6406;5.563104;40.02050;59.98506;.003272758
69.29582;711.8934;5.562194;39.99816;60.02598;.002656259
69.82082;717.1458;5.560500;39.97232;59.99712;.003548384
70.34582;722.4006;5.559684;39.98583;59.98791;.002962146
70.87084;727.6581;5.558322;40.01680;59.99921;.003815981
71.39584;732.9124;5.557002;40.01645;59.99635;.004691254
71.92082;738.1645;5.555356;39.99424;60.01614;.004216906
72.44582;743.4213;5.554182;39.99187;59.98720;.003363812
72.97082;748.6719;5.553097;39.99104;59.99090;.004354235
73.49584;753.9293;5.551809;39.98059;59.97474;.003514910
74.02084;759.1746;5.550453;40.00924;60.00596;.003549697
74.54582;764.4214;5.549048;39.98394;60.01089;.003911667
75.07082;769.6762;5.548063;40.01420;59.99023;.003352619
75.59582;774.9256;5.546824;39.99736;59.99902;.002946720
76.12084;780.1818;5.546349;39.99150;59.99708;.003422492
76.64584;785.4374;5.544355;39.99362;59.96280;.003572122
77.17082;790.6946;5.543766;39.99266;60.00496;.002078801
77.69582;795.9463;5.542652;39.99350;60.03594;.004535630
78.22082;801.1994;5.541370;39.98633;60.01042;.003911744
78.74584;806.4509;5.539824;40.00060;60.00742;.003900440
79.27084;811.7036;5.538930;40.01007;59.97500;.003648705
79.79582;816.9538;5.537214;40.01422;60.00038;.004924998
80.32082;822.2132;5.535598;40.00947;60.00015;.004507625
80.84582;827.4637;5.534126;39.98546;60.00472;.006222530
81.37084;832.7186;5.532116;40.00733;60.01460;.005120172
81.89584;837.9699;5.530074;40.03537;60.02566;.008385590
82.42082;843.2170;5.527039;39.98344;60.00147;0.01044050
82.94582;848.4648;5.523118;39.99893;60.00289;0.01334921
83.47082;853.7208;5.518346;39.98895;60.02466;0.01583477
83.99584;858.9745;5.511960;40.02894;60.01538;0.01877417
84.52084;864.2309;5.505356;40.01072;60.01824;0.02132488
85.04582;869.4774;5.497500;40.06074;60.02051;0.02360512
85.57082;874.7340;5.488781;39.97132;59.97378;0.02536968
86.09582;879.9894;5.481832;39.98256;59.98516;0.02281442
86.62084;885.2391;5.473956;40.02452;60.00132;0.01837595
87.14584;890.4843;5.468516;39.99802;60.01550;0.01370923
87.67082;895.7420;5.464626;40.01784;60.01342;0.01011393
88.19582;900.9936;5.461830;39.99484;59.98974;.005458147
88.72082;906.2504;5.460481;40.02517;60.01620;.001333213
89.24584;911.5066;5.459614;40.01288;59.98840;7.14206E-4
89.77084;916.7571;5.460414;39.98134;60.00028;5.08433E-4
90.29582;922.0082;5.459656;39.97906;59.99529;4.55323E-4
90.82082;927.2563;5.460426;40.01175;59.98191;-2.7740E-3
91.34582;932.5109;5.462828;40.03546;60.04170;-2.5860E-3
91.87084;937.7650;5.462870;39.98010;59.98630;-2.4579E-3
92.39584;943.0159;5.462149;40.00822;59.98345;.001277512
92.70418;946.1036;5.462182;40.01875;59.98154;-7.2548E-4