File: charts/20230727/TRANSFORM/TGA/ZCFA.txt
0.001533333;22.98286;6.599860;40.00727;60.01988;0.05500293
0.5208332;25.08762;6.588586;40.00543;60.01930;0.05699209
1.045834;30.06120;6.570316;40.00463;59.98570;0.06840026
1.570833;35.24976;6.543542;39.98942;59.99003;0.07625408
2.095833;40.30005;6.519000;40.02947;59.99715;0.07193576
2.620834;45.35611;6.495782;40.00824;60.01464;0.06662831
3.145833;50.46372;6.474110;40.02538;59.98953;0.06414949
3.670833;55.62260;6.452300;40.02459;59.99005;0.06369836
4.195833;60.81440;6.430328;39.99454;60.01122;0.06543009
4.720833;66.03826;6.407313;39.98728;60.04163;0.06999207
5.245834;71.27463;6.381894;40.04968;60.02729;0.07868485
5.770834;76.51990;6.352560;39.99119;59.96669;0.09313018
6.295832;81.77168;6.317005;40.00772;59.96248;0.1140646
6.820832;87.03098;6.273246;40.00168;59.96394;0.1382880
7.345834;92.28992;6.221103;39.98928;59.99537;0.1602364
7.870834;97.55343;6.162385;39.99976;60.04605;0.1730142
8.395832;102.8173;6.101606;39.99188;59.98976;0.1715436
8.920834;108.0821;6.044239;39.99870;59.99730;0.1531324
9.445832;113.3446;5.995787;40.00969;60.01768;0.1236677
9.970834;118.5983;5.958252;39.99228;60.01704;0.09445168
10.49584;123.8520;5.930044;40.02903;59.98765;0.07189741
11.02083;129.1068;5.908106;39.98400;60.01040;0.05676795
11.54584;134.3617;5.890395;39.99250;59.98985;0.04603446
12.07083;139.6167;5.875963;40.00207;60.02237;0.03835955
12.59584;144.8663;5.863678;40.02891;59.99455;0.03316372
13.12083;150.1183;5.852980;40.01306;59.99410;0.02895703
13.64583;155.3765;5.843580;40.01024;60.00202;0.02578600
14.17084;160.6291;5.835062;40.01472;60.00977;0.02323984
14.69583;165.8826;5.827449;40.01753;59.98493;0.02120212
15.22084;171.1348;5.820292;39.99782;60.01500;0.01955923
15.74583;176.3873;5.813870;40.00762;59.99430;0.01810724
16.27084;181.6395;5.807676;39.97202;60.00801;0.01677653
16.79584;186.8869;5.802232;39.99924;60.01932;0.01557040
17.32083;192.1351;5.797036;39.98967;60.00672;0.01440388
17.84583;197.3821;5.792437;40.01114;60.00660;0.01335246
18.37083;202.6320;5.787710;39.99061;60.00999;0.01254308
18.89584;207.8768;5.783468;39.99321;60.01180;0.01192516
19.42084;213.1244;5.779484;39.98653;60.01782;0.01111766
19.94583;218.3752;5.775855;40.02400;59.98972;0.01044141
20.47083;223.6214;5.772229;39.99516;59.99682;0.01010992
20.99583;228.8686;5.768818;39.99161;60.00578;.009830298
21.52084;234.1146;5.765430;40.00218;60.00211;.009188318
22.04584;239.3598;5.762407;40.00687;59.99062;.008813038
22.57083;244.6049;5.759310;40.00628;60.04133;.008689345
23.09583;249.8502;5.756396;39.98792;60.01441;.008226980
23.62083;255.0975;5.753524;40.01354;60.03515;.008135358
24.14584;260.3440;5.750889;40.01315;59.98287;.007617018
24.67084;265.5913;5.748238;40.00144;60.01738;.007535705
25.19583;270.8380;5.745758;40.00580;60.00524;.007024543
25.72083;276.0902;5.743326;39.99304;60.00951;.007147079
26.24583;281.3373;5.740820;40.02238;59.99714;.006949710
26.77084;286.5845;5.738528;39.99110;59.98888;.006700649
27.29584;291.8350;5.736422;39.99447;59.98290;.006845956
27.82084;297.0795;5.733753;39.96295;60.01479;.006857556
28.34583;302.3285;5.731456;40.01205;60.01157;.006640985
28.87083;307.5740;5.729218;40.01616;59.97999;.006383470
29.39584;312.8243;5.726998;39.99820;60.01807;.006327938
29.92084;318.0681;5.724820;40.01072;59.97451;.006035635
30.44584;323.3133;5.722710;40.00635;59.99578;.006022578
30.97083;328.5586;5.720650;39.99266;60.01218;.006196959
31.49583;333.8053;5.718518;39.95810;59.98511;.005702198
32.02083;339.0506;5.716660;40.00613;60.00032;.005478303
32.54584;344.2930;5.714796;39.99326;60.02934;.005452062
33.07084;349.5395;5.712839;39.99483;60.00690;.005578620
33.59583;354.7834;5.711010;39.97497;59.98924;.005424775
34.12084;360.0311;5.709126;39.99664;60.01753;.005419249
34.64583;365.2942;5.707209;39.98590;60.00684;.005285359
35.17084;370.5554;5.705387;39.99322;59.99883;.005160352
35.69584;375.8100;5.703706;39.97730;60.01039;.005017082
36.22083;381.0665;5.701897;39.97695;59.98999;.005020053
36.74584;386.3200;5.700280;40.00415;60.00474;.004830989
37.27083;391.5742;5.698552;40.02114;59.99203;.004795512
37.79584;396.8268;5.696950;40.01148;60.02774;.004591472
38.32084;402.0788;5.695286;40.00996;60.00329;.004476176
38.84583;407.3302;5.693701;39.98840;60.00502;.004667028
39.37084;412.5822;5.692196;40.01174;59.98672;.004660286
39.89583;417.8346;5.690551;39.98528;59.98476;.004464611
40.42084;423.0887;5.689060;40.01285;59.99106;.004651932
40.94584;428.3400;5.687320;39.99931;59.97250;.004767974
41.47083;433.5912;5.685675;40.01950;59.99684;.004831286
41.99584;438.8464;5.684205;40.02803;59.98490;.004397726
42.52083;444.0974;5.682537;40.02726;60.01052;.004800526
43.04584;449.3502;5.680984;40.00485;60.02278;.003833534
43.57084;454.6050;5.679382;40.01416;60.01821;.005249213
44.09583;459.8560;5.677791;39.97301;60.00000;.004366196
44.62084;465.1094;5.676160;40.02550;60.01974;.004475480
45.14583;470.3667;5.674545;40.03194;59.99622;.004891729
45.67084;475.6209;5.672830;39.99451;60.01669;.004590217
46.19584;480.8728;5.671372;40.00541;59.99022;.004323825
46.72083;486.1274;5.669862;40.02322;59.99678;.004246533
47.24584;491.3804;5.668582;39.98793;59.99914;.004052356
47.77083;496.6353;5.666892;40.00628;60.01861;.004756082
48.29584;501.8888;5.665199;39.99672;60.02078;.004621163
48.82084;507.1447;5.663618;40.04045;60.00813;.004665436
49.34583;512.3960;5.661919;39.99698;60.03041;.004750196
49.87084;517.6510;5.660332;39.99513;59.98669;.004727964
50.39583;522.9037;5.658426;39.96508;60.00496;.005057100
50.92084;528.1574;5.656864;39.99070;60.02915;.005029274
51.44584;533.4118;5.655059;39.97433;60.00050;.005231334
51.97083;538.6656;5.653130;39.98580;59.99358;.005563430
52.49584;543.9174;5.651114;40.04084;60.02229;.006320762
53.02082;549.1724;5.648715;40.02006;60.00760;.007491170
53.54582;554.4265;5.645982;39.99375;60.00394;.008332394
54.07084;559.6768;5.642890;39.98144;59.99602;.008820225
54.59582;564.9321;5.639776;40.00122;60.02636;.008912445
55.12084;570.1866;5.636903;39.98196;59.98338;.007943784
55.64582;575.4394;5.634382;40.00244;59.99669;.006746674
56.17082;580.6975;5.632096;40.01824;60.00782;.005174072
56.69584;585.9544;5.630764;39.99086;60.02216;.003728344
57.22082;591.2024;5.629528;40.01239;59.98095;.003451598
57.74584;596.4600;5.628412;39.99285;60.00750;.002832420
58.27082;601.7151;5.627474;40.00230;60.02868;.002740017
58.79582;606.9672;5.626504;39.98758;60.00014;.002311885
59.32084;612.2194;5.625934;40.00925;59.97850;.001339249
59.84582;617.4736;5.625538;40.00344;59.98962;8.10219E-4
60.37084;622.7274;5.625322;39.98466;60.02526;6.58942E-4
60.89582;627.9808;5.625121;40.01755;59.96705;3.62653E-4
61.42082;633.2360;5.625092;40.00292;60.00086;4.64958E-4
61.94584;638.4886;5.624920;39.97382;59.99765;3.55992E-4
62.47082;643.7447;5.624790;40.00810;60.00388;5.50807E-4
62.99584;648.9975;5.624454;39.99639;59.98441;4.13828E-4
63.52082;654.2493;5.624039;39.97743;59.99834;8.85638E-4
64.04582;659.5026;5.624030;40.00866;59.99500;7.48991E-4
64.57082;664.7579;5.623546;39.97991;59.99049;.001187652
65.09582;670.0116;5.623256;40.01032;59.98499;.001565276
65.62084;675.2659;5.622506;39.99681;59.99256;.002385333
66.14584;680.5194;5.621709;39.99360;60.01129;.001729426
66.67082;685.7749;5.621035;39.99870;60.01543;.002799695
67.19582;691.0274;5.619870;39.99097;60.00171;.003695528
67.72082;696.2793;5.618442;39.97808;60.02696;.004316628
68.24584;701.5342;5.616866;40.00365;60.01285;.005275650
68.77084;706.7890;5.614957;40.02330;59.99139;.005433338
69.29582;712.0422;5.613235;40.03436;59.97186;.005021532
69.82082;717.2969;5.611500;39.98692;59.98086;.005262421
70.34582;722.5480;5.609443;39.96428;60.01946;.005209184
70.87084;727.7995;5.607852;39.99117;59.98700;.004063003
71.39584;733.0546;5.606549;39.99271;60.00662;.004599259
71.92082;738.3119;5.604715;39.98812;59.97872;.003955062
72.44582;743.5639;5.604088;39.99950;59.97571;.002556264
72.97082;748.8164;5.602970;40.00693;60.01094;.003171918
73.49584;754.0666;5.601802;40.00875;60.01582;.002355056
74.02084;759.3211;5.601524;40.00526;59.99293;.002635966
74.54582;764.5726;5.600303;39.97920;59.97880;.001945538
75.07082;769.8279;5.599905;40.00740;60.00762;.001941484
75.59582;775.0835;5.599204;40.03722;60.03857;.001487399
76.12084;780.3369;5.598816;39.97719;60.00405;.001743578
76.64584;785.5860;5.598070;40.00467;60.00840;.001704766
77.17082;790.8407;5.597538;40.01153;60.01124;.002007119
77.69582;796.0930;5.596432;40.02334;59.97766;.002004956
78.22082;801.3444;5.595928;39.99539;59.99361;.002830158
78.74584;806.5969;5.594715;39.99861;59.99747;.002441032
79.27084;811.8503;5.594122;40.01036;60.00320;.002454582
79.79582;817.1056;5.592712;39.99594;60.00599;.004243572
80.32082;822.3570;5.591303;40.00294;59.98408;.004352554
80.84582;827.6093;5.589595;40.01365;60.03026;.005030746
81.37084;832.8634;5.587817;40.00578;59.99135;.006443496
81.89584;838.1118;5.584918;40.00481;59.95396;.007669099
82.42082;843.3703;5.582864;39.98208;60.02254;.007640395
82.94582;848.6197;5.579607;40.00706;59.99271;0.01030236
83.47082;853.8712;5.575620;39.97696;60.02625;0.01278078
83.99584;859.1239;5.570726;39.99750;60.00874;0.01512422
84.52084;864.3861;5.565120;40.00876;60.04124;0.01756286
85.04582;869.6415;5.558736;40.00461;59.99619;0.01995866
85.57082;874.8889;5.551526;40.00549;59.99028;0.02129921
86.09582;880.1569;5.544021;39.99663;59.99224;0.02119651
86.62084;885.3847;5.536872;40.02327;60.01600;0.01831835
87.14584;890.6382;5.531349;40.00206;59.99487;0.01487255
87.67082;895.8892;5.526676;39.98535;59.99282;0.01025144
88.19582;901.1478;5.523981;39.98721;60.00178;.006387894
88.72082;906.3888;5.522408;40.02970;59.97266;.003809133
89.24584;911.6461;5.521534;39.98403;60.01448;.001272883
89.77084;916.9080;5.521348;40.00526;60.00909;.001990326
90.29582;922.1576;5.520206;40.01440;59.97726;5.96600E-4
90.82082;927.4129;5.520645;40.00484;60.00012;-1.1867E-3
91.34582;932.6678;5.520816;39.97348;59.98582;2.84808E-5
91.87084;937.9208;5.520906;40.01333;59.99359;-3.6879E-4
92.39584;943.1662;5.520984;40.00652;59.97049;-1.5638E-5
92.68750;946.0816;5.520899;40.00132;60.00451;7.09186E-4